Model,MDO32
Firmware Version,1.12.15

Waveform Type,ANALOG
Point Format,Y
Horizontal Units,s
Horizontal Scale,8e-08
Horizontal Delay,2.71292e-07
Sample Interval,8e-10
Record Length,1000
Gating,0.1% to 100.0%
Probe Attenuation,1
Vertical Units,V
Vertical Offset,0
Vertical Scale,0.1
Vertical Position,2.76
,
,
,
Label,
TIME,CH1
-1.287e-07,-4.44089e-17
-1.279e-07,-4.44089e-17
-1.271e-07,-4.44089e-17
-1.263e-07,-4.44089e-17
-1.255e-07,-4.44089e-17
-1.247e-07,-4.44089e-17
-1.239e-07,-4.44089e-17
-1.231e-07,-4.44089e-17
-1.223e-07,-4.44089e-17
-1.215e-07,0.004
-1.207e-07,-4.44089e-17
-1.199e-07,-4.44089e-17
-1.191e-07,0.004
-1.183e-07,-4.44089e-17
-1.175e-07,0.004
-1.167e-07,-4.44089e-17
-1.159e-07,-4.44089e-17
-1.151e-07,-4.44089e-17
-1.143e-07,-4.44089e-17
-1.135e-07,-4.44089e-17
-1.127e-07,-4.44089e-17
-1.119e-07,-4.44089e-17
-1.111e-07,-4.44089e-17
-1.103e-07,-4.44089e-17
-1.095e-07,-4.44089e-17
-1.087e-07,-4.44089e-17
-1.079e-07,-4.44089e-17
-1.071e-07,-0.004
-1.063e-07,-4.44089e-17
-1.055e-07,-4.44089e-17
-1.047e-07,-4.44089e-17
-1.039e-07,-4.44089e-17
-1.031e-07,-4.44089e-17
-1.023e-07,-4.44089e-17
-1.015e-07,-4.44089e-17
-1.007e-07,-4.44089e-17
-9.991e-08,-4.44089e-17
-9.911e-08,0.004
-9.831e-08,-4.44089e-17
-9.751e-08,-4.44089e-17
-9.671e-08,-4.44089e-17
-9.591e-08,-4.44089e-17
-9.511e-08,-4.44089e-17
-9.431e-08,-4.44089e-17
-9.351e-08,-4.44089e-17
-9.271e-08,-4.44089e-17
-9.191e-08,0.004
-9.111e-08,-4.44089e-17
-9.031e-08,-4.44089e-17
-8.951e-08,-4.44089e-17
-8.871e-08,-4.44089e-17
-8.791e-08,-4.44089e-17
-8.711e-08,-4.44089e-17
-8.631e-08,0.004
-8.551e-08,-4.44089e-17
-8.471e-08,-4.44089e-17
-8.391e-08,-4.44089e-17
-8.311e-08,-4.44089e-17
-8.231e-08,-4.44089e-17
-8.151e-08,-0.004
-8.071e-08,-4.44089e-17
-7.991e-08,-4.44089e-17
-7.911e-08,-4.44089e-17
-7.831e-08,-4.44089e-17
-7.751e-08,-4.44089e-17
-7.671e-08,-4.44089e-17
-7.591e-08,-4.44089e-17
-7.511e-08,-4.44089e-17
-7.431e-08,-4.44089e-17
-7.351e-08,-4.44089e-17
-7.271e-08,-4.44089e-17
-7.191e-08,-4.44089e-17
-7.111e-08,-4.44089e-17
-7.031e-08,-4.44089e-17
-6.951e-08,-4.44089e-17
-6.871e-08,0.004
-6.791e-08,-4.44089e-17
-6.711e-08,0.004
-6.631e-08,-4.44089e-17
-6.551e-08,-0.004
-6.471e-08,-4.44089e-17
-6.391e-08,-4.44089e-17
-6.311e-08,-0.004
-6.231e-08,-4.44089e-17
-6.151e-08,-4.44089e-17
-6.071e-08,-4.44089e-17
-5.991e-08,-4.44089e-17
-5.911e-08,-4.44089e-17
-5.831e-08,-4.44089e-17
-5.751e-08,-0.004
-5.671e-08,-4.44089e-17
-5.591e-08,-4.44089e-17
-5.511e-08,-4.44089e-17
-5.431e-08,-4.44089e-17
-5.351e-08,-4.44089e-17
-5.271e-08,-4.44089e-17
-5.191e-08,-4.44089e-17
-5.111e-08,-4.44089e-17
-5.031e-08,-4.44089e-17
-4.951e-08,-4.44089e-17
-4.871e-08,-4.44089e-17
-4.791e-08,-4.44089e-17
-4.711e-08,0.004
-4.631e-08,-4.44089e-17
-4.551e-08,0.004
-4.471e-08,-4.44089e-17
-4.391e-08,-4.44089e-17
-4.311e-08,-4.44089e-17
-4.231e-08,-4.44089e-17
-4.151e-08,-4.44089e-17
-4.071e-08,-4.44089e-17
-3.991e-08,-4.44089e-17
-3.911e-08,-0.004
-3.831e-08,-4.44089e-17
-3.751e-08,-4.44089e-17
-3.671e-08,-4.44089e-17
-3.591e-08,-4.44089e-17
-3.511e-08,-4.44089e-17
-3.431e-08,-4.44089e-17
-3.351e-08,-4.44089e-17
-3.271e-08,-4.44089e-17
-3.191e-08,-4.44089e-17
-3.111e-08,-4.44089e-17
-3.031e-08,-4.44089e-17
-2.951e-08,-4.44089e-17
-2.871e-08,-4.44089e-17
-2.791e-08,-0.004
-2.711e-08,-4.44089e-17
-2.631e-08,-0.004
-2.551e-08,-0.004
-2.471e-08,-0.004
-2.391e-08,-4.44089e-17
-2.311e-08,-4.44089e-17
-2.231e-08,-4.44089e-17
-2.151e-08,-4.44089e-17
-2.071e-08,-0.004
-1.991e-08,-4.44089e-17
-1.911e-08,-4.44089e-17
-1.831e-08,-4.44089e-17
-1.751e-08,-0.004
-1.671e-08,-4.44089e-17
-1.591e-08,-0.004
-1.511e-08,-4.44089e-17
-1.431e-08,-4.44089e-17
-1.351e-08,-4.44089e-17
-1.271e-08,-4.44089e-17
-1.191e-08,-4.44089e-17
-1.111e-08,-4.44089e-17
-1.031e-08,-4.44089e-17
-9.508e-09,0.004
-8.708e-09,-4.44089e-17
-7.908e-09,-4.44089e-17
-7.108e-09,-4.44089e-17
-6.308e-09,-4.44089e-17
-5.508e-09,-4.44089e-17
-4.708e-09,-4.44089e-17
-3.908e-09,-0.008
-3.108e-09,-0.024
-2.308e-09,-0.08
-1.508e-09,-0.188
-7.083e-10,-0.32
9.172e-11,-0.444
8.917e-10,-0.5
1.692e-09,-0.504
2.492e-09,-0.476
3.292e-09,-0.452
4.092e-09,-0.432
4.892e-09,-0.416
5.692e-09,-0.392
6.492e-09,-0.368
7.292e-09,-0.384
8.092e-09,-0.428
8.892e-09,-0.476
9.692e-09,-0.484
1.049e-08,-0.456
1.129e-08,-0.416
1.209e-08,-0.396
1.289e-08,-0.4
1.369e-08,-0.412
1.449e-08,-0.428
1.529e-08,-0.444
1.609e-08,-0.468
1.689e-08,-0.5
1.769e-08,-0.54
1.849e-08,-0.564
1.929e-08,-0.544
2.009e-08,-0.484
2.089e-08,-0.404
2.169e-08,-0.348
2.249e-08,-0.32
2.329e-08,-0.332
2.409e-08,-0.376
2.489e-08,-0.42
2.569e-08,-0.452
2.649e-08,-0.448
2.729e-08,-0.416
2.809e-08,-0.388
2.889e-08,-0.38
2.969e-08,-0.404
3.049e-08,-0.424
3.129e-08,-0.432
3.209e-08,-0.42
3.289e-08,-0.388
3.369e-08,-0.36
3.449e-08,-0.336
3.529e-08,-0.324
3.609e-08,-0.32
3.689e-08,-0.312
3.769e-08,-0.32
3.849e-08,-0.344
3.929e-08,-0.364
4.009e-08,-0.368
4.089e-08,-0.36
4.169e-08,-0.348
4.249e-08,-0.36
4.329e-08,-0.376
4.409e-08,-0.396
4.489e-08,-0.404
4.569e-08,-0.392
4.649e-08,-0.368
4.729e-08,-0.336
4.809e-08,-0.3
4.889e-08,-0.292
4.969e-08,-0.304
5.049e-08,-0.32
5.129e-08,-0.32
5.209e-08,-0.304
5.289e-08,-0.292
5.369e-08,-0.312
5.449e-08,-0.356
5.529e-08,-0.396
5.609e-08,-0.412
5.689e-08,-0.4
5.769e-08,-0.376
5.849e-08,-0.356
5.929e-08,-0.34
6.009e-08,-0.34
6.089e-08,-0.348
6.169e-08,-0.344
6.249e-08,-0.324
6.329e-08,-0.28
6.409e-08,-0.232
6.489e-08,-0.204
6.569e-08,-0.196
6.649e-08,-0.208
6.729e-08,-0.24
6.809e-08,-0.28
6.889e-08,-0.316
6.969e-08,-0.34
7.049e-08,-0.336
7.129e-08,-0.312
7.209e-08,-0.276
7.289e-08,-0.252
7.369e-08,-0.248
7.449e-08,-0.26
7.529e-08,-0.264
7.609e-08,-0.26
7.689e-08,-0.256
7.769e-08,-0.26
7.849e-08,-0.272
7.929e-08,-0.284
8.009e-08,-0.296
8.089e-08,-0.308
8.169e-08,-0.312
8.249e-08,-0.308
8.329e-08,-0.288
8.409e-08,-0.26
8.489e-08,-0.24
8.569e-08,-0.244
8.649e-08,-0.268
8.729e-08,-0.308
8.809e-08,-0.328
8.889e-08,-0.332
8.969e-08,-0.316
9.049e-08,-0.3
9.129e-08,-0.292
9.209e-08,-0.288
9.289e-08,-0.296
9.369e-08,-0.3
9.449e-08,-0.296
9.529e-08,-0.308
9.609e-08,-0.34
9.689e-08,-0.364
9.769e-08,-0.352
9.849e-08,-0.312
9.929e-08,-0.272
1.001e-07,-0.252
1.009e-07,-0.244
1.017e-07,-0.248
1.025e-07,-0.256
1.033e-07,-0.276
1.041e-07,-0.292
1.049e-07,-0.3
1.057e-07,-0.304
1.065e-07,-0.296
1.073e-07,-0.284
1.081e-07,-0.276
1.089e-07,-0.26
1.097e-07,-0.256
1.105e-07,-0.264
1.113e-07,-0.272
1.121e-07,-0.272
1.129e-07,-0.26
1.137e-07,-0.252
1.145e-07,-0.252
1.153e-07,-0.26
1.161e-07,-0.264
1.169e-07,-0.264
1.177e-07,-0.26
1.185e-07,-0.268
1.193e-07,-0.28
1.201e-07,-0.284
1.209e-07,-0.272
1.217e-07,-0.252
1.225e-07,-0.244
1.233e-07,-0.252
1.241e-07,-0.276
1.249e-07,-0.284
1.257e-07,-0.276
1.265e-07,-0.256
1.273e-07,-0.232
1.281e-07,-0.22
1.289e-07,-0.212
1.297e-07,-0.196
1.305e-07,-0.184
1.313e-07,-0.184
1.321e-07,-0.212
1.329e-07,-0.252
1.337e-07,-0.28
1.345e-07,-0.284
1.353e-07,-0.268
1.361e-07,-0.248
1.369e-07,-0.224
1.377e-07,-0.204
1.385e-07,-0.204
1.393e-07,-0.212
1.401e-07,-0.224
1.409e-07,-0.236
1.417e-07,-0.26
1.425e-07,-0.276
1.433e-07,-0.268
1.441e-07,-0.256
1.449e-07,-0.228
1.457e-07,-0.212
1.465e-07,-0.204
1.473e-07,-0.196
1.481e-07,-0.192
1.489e-07,-0.188
1.497e-07,-0.192
1.505e-07,-0.204
1.513e-07,-0.212
1.521e-07,-0.196
1.529e-07,-0.172
1.537e-07,-0.152
1.545e-07,-0.148
1.553e-07,-0.164
1.561e-07,-0.176
1.569e-07,-0.176
1.577e-07,-0.164
1.585e-07,-0.164
1.593e-07,-0.168
1.601e-07,-0.176
1.609e-07,-0.184
1.617e-07,-0.184
1.625e-07,-0.18
1.633e-07,-0.188
1.641e-07,-0.208
1.649e-07,-0.228
1.657e-07,-0.236
1.665e-07,-0.228
1.673e-07,-0.216
1.681e-07,-0.188
1.689e-07,-0.172
1.697e-07,-0.16
1.705e-07,-0.16
1.713e-07,-0.16
1.721e-07,-0.18
1.729e-07,-0.196
1.737e-07,-0.204
1.745e-07,-0.204
1.753e-07,-0.188
1.761e-07,-0.172
1.769e-07,-0.152
1.777e-07,-0.152
1.785e-07,-0.164
1.793e-07,-0.184
1.801e-07,-0.208
1.809e-07,-0.22
1.817e-07,-0.224
1.825e-07,-0.208
1.833e-07,-0.2
1.841e-07,-0.192
1.849e-07,-0.192
1.857e-07,-0.196
1.865e-07,-0.188
1.873e-07,-0.184
1.881e-07,-0.172
1.889e-07,-0.176
1.897e-07,-0.184
1.905e-07,-0.196
1.913e-07,-0.208
1.921e-07,-0.204
1.929e-07,-0.2
1.937e-07,-0.192
1.945e-07,-0.184
1.953e-07,-0.172
1.961e-07,-0.164
1.969e-07,-0.156
1.977e-07,-0.152
1.985e-07,-0.156
1.993e-07,-0.172
2.001e-07,-0.192
2.009e-07,-0.204
2.017e-07,-0.212
2.025e-07,-0.212
2.033e-07,-0.208
2.041e-07,-0.204
2.049e-07,-0.196
2.057e-07,-0.188
2.065e-07,-0.184
2.073e-07,-0.18
2.081e-07,-0.188
2.089e-07,-0.188
2.097e-07,-0.18
2.105e-07,-0.172
2.113e-07,-0.16
2.121e-07,-0.148
2.129e-07,-0.148
2.137e-07,-0.156
2.145e-07,-0.164
2.153e-07,-0.176
2.161e-07,-0.184
2.169e-07,-0.188
2.177e-07,-0.172
2.185e-07,-0.152
2.193e-07,-0.136
2.201e-07,-0.128
2.209e-07,-0.136
2.217e-07,-0.152
2.225e-07,-0.164
2.233e-07,-0.172
2.241e-07,-0.176
2.249e-07,-0.172
2.257e-07,-0.156
2.265e-07,-0.144
2.273e-07,-0.136
2.281e-07,-0.132
2.289e-07,-0.136
2.297e-07,-0.144
2.305e-07,-0.152
2.313e-07,-0.168
2.321e-07,-0.172
2.329e-07,-0.168
2.337e-07,-0.152
2.345e-07,-0.14
2.353e-07,-0.124
2.361e-07,-0.12
2.369e-07,-0.124
2.377e-07,-0.132
2.385e-07,-0.14
2.393e-07,-0.144
2.401e-07,-0.144
2.409e-07,-0.144
2.417e-07,-0.144
2.425e-07,-0.14
2.433e-07,-0.144
2.441e-07,-0.14
2.449e-07,-0.132
2.457e-07,-0.14
2.465e-07,-0.156
2.473e-07,-0.168
2.481e-07,-0.172
2.489e-07,-0.168
2.497e-07,-0.156
2.505e-07,-0.144
2.513e-07,-0.14
2.521e-07,-0.124
2.529e-07,-0.116
2.537e-07,-0.116
2.545e-07,-0.128
2.553e-07,-0.144
2.561e-07,-0.156
2.569e-07,-0.152
2.577e-07,-0.152
2.585e-07,-0.152
2.593e-07,-0.156
2.601e-07,-0.152
2.609e-07,-0.152
2.617e-07,-0.152
2.625e-07,-0.168
2.633e-07,-0.192
2.641e-07,-0.212
2.649e-07,-0.212
2.657e-07,-0.192
2.665e-07,-0.156
2.673e-07,-0.136
2.681e-07,-0.12
2.689e-07,-0.116
2.697e-07,-0.12
2.705e-07,-0.12
2.713e-07,-0.124
2.721e-07,-0.14
2.729e-07,-0.152
2.737e-07,-0.16
2.745e-07,-0.156
2.753e-07,-0.136
2.761e-07,-0.112
2.769e-07,-0.112
2.777e-07,-0.12
2.785e-07,-0.14
2.793e-07,-0.152
2.801e-07,-0.152
2.809e-07,-0.148
2.817e-07,-0.144
2.825e-07,-0.14
2.833e-07,-0.14
2.841e-07,-0.136
2.849e-07,-0.144
2.857e-07,-0.164
2.865e-07,-0.192
2.873e-07,-0.212
2.881e-07,-0.2
2.889e-07,-0.172
2.897e-07,-0.136
2.905e-07,-0.112
2.913e-07,-0.096
2.921e-07,-0.1
2.929e-07,-0.112
2.937e-07,-0.12
2.945e-07,-0.124
2.953e-07,-0.124
2.961e-07,-0.124
2.969e-07,-0.124
2.977e-07,-0.12
2.985e-07,-0.112
2.993e-07,-0.1
3.001e-07,-0.092
3.009e-07,-0.096
3.017e-07,-0.124
3.025e-07,-0.152
3.033e-07,-0.164
3.041e-07,-0.168
3.049e-07,-0.164
3.057e-07,-0.164
3.065e-07,-0.164
3.073e-07,-0.152
3.081e-07,-0.124
3.089e-07,-0.104
3.097e-07,-0.1
3.105e-07,-0.112
3.113e-07,-0.14
3.121e-07,-0.156
3.129e-07,-0.16
3.137e-07,-0.152
3.145e-07,-0.144
3.153e-07,-0.132
3.161e-07,-0.124
3.169e-07,-0.116
3.177e-07,-0.112
3.185e-07,-0.116
3.193e-07,-0.132
3.201e-07,-0.148
3.209e-07,-0.152
3.217e-07,-0.14
3.225e-07,-0.128
3.233e-07,-0.112
3.241e-07,-0.1
3.249e-07,-0.092
3.257e-07,-0.088
3.265e-07,-0.092
3.273e-07,-0.1
3.281e-07,-0.108
3.289e-07,-0.116
3.297e-07,-0.116
3.305e-07,-0.104
3.313e-07,-0.092
3.321e-07,-0.088
3.329e-07,-0.092
3.337e-07,-0.104
3.345e-07,-0.116
3.353e-07,-0.12
3.361e-07,-0.116
3.369e-07,-0.1
3.377e-07,-0.088
3.385e-07,-0.072
3.393e-07,-0.064
3.401e-07,-0.056
3.409e-07,-0.064
3.417e-07,-0.088
3.425e-07,-0.108
3.433e-07,-0.132
3.441e-07,-0.14
3.449e-07,-0.132
3.457e-07,-0.116
3.465e-07,-0.108
3.473e-07,-0.104
3.481e-07,-0.112
3.489e-07,-0.112
3.497e-07,-0.112
3.505e-07,-0.116
3.513e-07,-0.12
3.521e-07,-0.124
3.529e-07,-0.116
3.537e-07,-0.108
3.545e-07,-0.096
3.553e-07,-0.1
3.561e-07,-0.112
3.569e-07,-0.132
3.577e-07,-0.144
3.585e-07,-0.144
3.593e-07,-0.132
3.601e-07,-0.12
3.609e-07,-0.1
3.617e-07,-0.092
3.625e-07,-0.088
3.633e-07,-0.096
3.641e-07,-0.1
3.649e-07,-0.104
3.657e-07,-0.12
3.665e-07,-0.116
3.673e-07,-0.1
3.681e-07,-0.084
3.689e-07,-0.076
3.697e-07,-0.08
3.705e-07,-0.084
3.713e-07,-0.088
3.721e-07,-0.096
3.729e-07,-0.1
3.737e-07,-0.104
3.745e-07,-0.108
3.753e-07,-0.108
3.761e-07,-0.092
3.769e-07,-0.08
3.777e-07,-0.072
3.785e-07,-0.068
3.793e-07,-0.08
3.801e-07,-0.1
3.809e-07,-0.124
3.817e-07,-0.14
3.825e-07,-0.132
3.833e-07,-0.12
3.841e-07,-0.112
3.849e-07,-0.112
3.857e-07,-0.104
3.865e-07,-0.092
3.873e-07,-0.076
3.881e-07,-0.072
3.889e-07,-0.076
3.897e-07,-0.088
3.905e-07,-0.092
3.913e-07,-0.092
3.921e-07,-0.092
3.929e-07,-0.1
3.937e-07,-0.12
3.945e-07,-0.124
3.953e-07,-0.12
3.961e-07,-0.104
3.969e-07,-0.084
3.977e-07,-0.072
3.985e-07,-0.072
3.993e-07,-0.08
4.001e-07,-0.084
4.009e-07,-0.088
4.017e-07,-0.084
4.025e-07,-0.084
4.033e-07,-0.08
4.041e-07,-0.088
4.049e-07,-0.1
4.057e-07,-0.12
4.065e-07,-0.136
4.073e-07,-0.148
4.081e-07,-0.148
4.089e-07,-0.132
4.097e-07,-0.104
4.105e-07,-0.076
4.113e-07,-0.056
4.121e-07,-0.04
4.129e-07,-0.036
4.137e-07,-0.048
4.145e-07,-0.064
4.153e-07,-0.076
4.161e-07,-0.092
4.169e-07,-0.096
4.177e-07,-0.088
4.185e-07,-0.08
4.193e-07,-0.08
4.201e-07,-0.08
4.209e-07,-0.076
4.217e-07,-0.08
4.225e-07,-0.092
4.233e-07,-0.1
4.241e-07,-0.1
4.249e-07,-0.088
4.257e-07,-0.068
4.265e-07,-0.052
4.273e-07,-0.044
4.281e-07,-0.052
4.289e-07,-0.064
4.297e-07,-0.084
4.305e-07,-0.092
4.313e-07,-0.096
4.321e-07,-0.088
4.329e-07,-0.08
4.337e-07,-0.064
4.345e-07,-0.056
4.353e-07,-0.06
4.361e-07,-0.072
4.369e-07,-0.084
4.377e-07,-0.088
4.385e-07,-0.076
4.393e-07,-0.064
4.401e-07,-0.064
4.409e-07,-0.068
4.417e-07,-0.076
4.425e-07,-0.08
4.433e-07,-0.088
4.441e-07,-0.088
4.449e-07,-0.092
4.457e-07,-0.088
4.465e-07,-0.076
4.473e-07,-0.06
4.481e-07,-0.048
4.489e-07,-0.048
4.497e-07,-0.06
4.505e-07,-0.084
4.513e-07,-0.104
4.521e-07,-0.12
4.529e-07,-0.116
4.537e-07,-0.108
4.545e-07,-0.092
4.553e-07,-0.08
4.561e-07,-0.064
4.569e-07,-0.048
4.577e-07,-0.048
4.585e-07,-0.052
4.593e-07,-0.064
4.601e-07,-0.076
4.609e-07,-0.08
4.617e-07,-0.072
4.625e-07,-0.056
4.633e-07,-0.044
4.641e-07,-0.052
4.649e-07,-0.068
4.657e-07,-0.092
4.665e-07,-0.108
4.673e-07,-0.112
4.681e-07,-0.108
4.689e-07,-0.088
4.697e-07,-0.076
4.705e-07,-0.068
4.713e-07,-0.064
4.721e-07,-0.064
4.729e-07,-0.068
4.737e-07,-0.08
4.745e-07,-0.092
4.753e-07,-0.104
4.761e-07,-0.1
4.769e-07,-0.084
4.777e-07,-0.068
4.785e-07,-0.06
4.793e-07,-0.06
4.801e-07,-0.064
4.809e-07,-0.064
4.817e-07,-0.06
4.825e-07,-0.06
4.833e-07,-0.056
4.841e-07,-0.06
4.849e-07,-0.056
4.857e-07,-0.052
4.865e-07,-0.048
4.873e-07,-0.06
4.881e-07,-0.076
4.889e-07,-0.1
4.897e-07,-0.104
4.905e-07,-0.096
4.913e-07,-0.08
4.921e-07,-0.072
4.929e-07,-0.076
4.937e-07,-0.08
4.945e-07,-0.084
4.953e-07,-0.088
4.961e-07,-0.096
4.969e-07,-0.1
4.977e-07,-0.1
4.985e-07,-0.084
4.993e-07,-0.068
5.001e-07,-0.056
5.009e-07,-0.052
5.017e-07,-0.06
5.025e-07,-0.084
5.033e-07,-0.1
5.041e-07,-0.112
5.049e-07,-0.12
5.057e-07,-0.108
5.065e-07,-0.096
5.073e-07,-0.08
5.081e-07,-0.068
5.089e-07,-0.06
5.097e-07,-0.068
5.105e-07,-0.08
5.113e-07,-0.08
5.121e-07,-0.08
5.129e-07,-0.076
5.137e-07,-0.076
5.145e-07,-0.076
5.153e-07,-0.072
5.161e-07,-0.076
5.169e-07,-0.084
5.177e-07,-0.084
5.185e-07,-0.088
5.193e-07,-0.084
5.201e-07,-0.084
5.209e-07,-0.076
5.217e-07,-0.068
5.225e-07,-0.056
5.233e-07,-0.048
5.241e-07,-0.048
5.249e-07,-0.056
5.257e-07,-0.064
5.265e-07,-0.064
5.273e-07,-0.056
5.281e-07,-0.048
5.289e-07,-0.04
5.297e-07,-0.032
5.305e-07,-0.028
5.313e-07,-0.028
5.321e-07,-0.032
5.329e-07,-0.04
5.337e-07,-0.048
5.345e-07,-0.052
5.353e-07,-0.056
5.361e-07,-0.06
5.369e-07,-0.052
5.377e-07,-0.052
5.385e-07,-0.048
5.393e-07,-0.048
5.401e-07,-0.048
5.409e-07,-0.052
5.417e-07,-0.056
5.425e-07,-0.064
5.433e-07,-0.076
5.441e-07,-0.076
5.449e-07,-0.076
5.457e-07,-0.076
5.465e-07,-0.068
5.473e-07,-0.064
5.481e-07,-0.056
5.489e-07,-0.048
5.497e-07,-0.04
5.505e-07,-0.036
5.513e-07,-0.036
5.521e-07,-0.048
5.529e-07,-0.052
5.537e-07,-0.056
5.545e-07,-0.052
5.553e-07,-0.048
5.561e-07,-0.048
5.569e-07,-0.052
5.577e-07,-0.064
5.585e-07,-0.064
5.593e-07,-0.06
5.601e-07,-0.056
5.609e-07,-0.052
5.617e-07,-0.048
5.625e-07,-0.048
5.633e-07,-0.048
5.641e-07,-0.056
5.649e-07,-0.064
5.657e-07,-0.072
5.665e-07,-0.068
5.673e-07,-0.06
5.681e-07,-0.056
5.689e-07,-0.052
5.697e-07,-0.06
5.705e-07,-0.064
5.713e-07,-0.076
5.721e-07,-0.084
5.729e-07,-0.092
5.737e-07,-0.084
5.745e-07,-0.08
5.753e-07,-0.072
5.761e-07,-0.052
5.769e-07,-0.032
5.777e-07,-0.024
5.785e-07,-0.024
5.793e-07,-0.032
5.801e-07,-0.044
5.809e-07,-0.064
5.817e-07,-0.08
5.825e-07,-0.08
5.833e-07,-0.084
5.841e-07,-0.08
5.849e-07,-0.072
5.857e-07,-0.06
5.865e-07,-0.056
5.873e-07,-0.048
5.881e-07,-0.052
5.889e-07,-0.056
5.897e-07,-0.056
5.905e-07,-0.064
5.913e-07,-0.064
5.921e-07,-0.056
5.929e-07,-0.048
5.937e-07,-0.044
5.945e-07,-0.04
5.953e-07,-0.04
5.961e-07,-0.044
5.969e-07,-0.044
5.977e-07,-0.044
5.985e-07,-0.056
5.993e-07,-0.06
6.001e-07,-0.06
6.009e-07,-0.052
6.017e-07,-0.048
6.025e-07,-0.044
6.033e-07,-0.048
6.041e-07,-0.048
6.049e-07,-0.048
6.057e-07,-0.044
6.065e-07,-0.044
6.073e-07,-0.04
6.081e-07,-0.04
6.089e-07,-0.04
6.097e-07,-0.04
6.105e-07,-0.04
6.113e-07,-0.032
6.121e-07,-0.032
6.129e-07,-0.032
6.137e-07,-0.036
6.145e-07,-0.04
6.153e-07,-0.052
6.161e-07,-0.052
6.169e-07,-0.048
6.177e-07,-0.04
6.185e-07,-0.032
6.193e-07,-0.028
6.201e-07,-0.036
6.209e-07,-0.052
6.217e-07,-0.06
6.225e-07,-0.064
6.233e-07,-0.06
6.241e-07,-0.06
6.249e-07,-0.052
6.257e-07,-0.052
6.265e-07,-0.048
6.273e-07,-0.048
6.281e-07,-0.052
6.289e-07,-0.064
6.297e-07,-0.072
6.305e-07,-0.072
6.313e-07,-0.064
6.321e-07,-0.048
6.329e-07,-0.036
6.337e-07,-0.032
6.345e-07,-0.036
6.353e-07,-0.048
6.361e-07,-0.052
6.369e-07,-0.052
6.377e-07,-0.044
6.385e-07,-0.04
6.393e-07,-0.036
6.401e-07,-0.036
6.409e-07,-0.036
6.417e-07,-0.032
6.425e-07,-0.032
6.433e-07,-0.032
6.441e-07,-0.032
6.449e-07,-0.04
6.457e-07,-0.044
6.465e-07,-0.044
6.473e-07,-0.04
6.481e-07,-0.036
6.489e-07,-0.024
6.497e-07,-0.024
6.505e-07,-0.024
6.513e-07,-0.028
6.521e-07,-0.032
6.529e-07,-0.032
6.537e-07,-0.036
6.545e-07,-0.036
6.553e-07,-0.036
6.561e-07,-0.04
6.569e-07,-0.044
6.577e-07,-0.04
6.585e-07,-0.048
6.593e-07,-0.052
6.601e-07,-0.06
6.609e-07,-0.056
6.617e-07,-0.052
6.625e-07,-0.04
6.633e-07,-0.032
6.641e-07,-0.032
6.649e-07,-0.036
6.657e-07,-0.036
6.665e-07,-0.032
6.673e-07,-0.024
6.681e-07,-0.02
6.689e-07,-0.02
6.697e-07,-0.02
6.705e-07,-0.028

