Model,MDO32
Firmware Version,1.12.15

Waveform Type,ANALOG
Point Format,Y
Horizontal Units,s
Horizontal Scale,8e-08
Horizontal Delay,2.71292e-07
Sample Interval,8e-10
Record Length,1000
Gating,0.1% to 100.0%
Probe Attenuation,1
Vertical Units,V
Vertical Offset,0
Vertical Scale,0.2
Vertical Position,2.76
,
,
,
Label,
TIME,CH1
-1.287e-07,0.008
-1.279e-07,-8.88178e-17
-1.271e-07,-0.008
-1.263e-07,-8.88178e-17
-1.255e-07,-8.88178e-17
-1.247e-07,-8.88178e-17
-1.239e-07,-0.008
-1.231e-07,-8.88178e-17
-1.223e-07,-8.88178e-17
-1.215e-07,-8.88178e-17
-1.207e-07,-8.88178e-17
-1.199e-07,-0.008
-1.191e-07,-8.88178e-17
-1.183e-07,-8.88178e-17
-1.175e-07,-8.88178e-17
-1.167e-07,-0.008
-1.159e-07,-0.008
-1.151e-07,-8.88178e-17
-1.143e-07,-8.88178e-17
-1.135e-07,-8.88178e-17
-1.127e-07,-0.008
-1.119e-07,-8.88178e-17
-1.111e-07,-8.88178e-17
-1.103e-07,-8.88178e-17
-1.095e-07,-0.008
-1.087e-07,-8.88178e-17
-1.079e-07,-8.88178e-17
-1.071e-07,-0.008
-1.063e-07,-8.88178e-17
-1.055e-07,-8.88178e-17
-1.047e-07,-8.88178e-17
-1.039e-07,-8.88178e-17
-1.031e-07,-8.88178e-17
-1.023e-07,-8.88178e-17
-1.015e-07,-8.88178e-17
-1.007e-07,-0.008
-9.991e-08,-8.88178e-17
-9.911e-08,-8.88178e-17
-9.831e-08,-8.88178e-17
-9.751e-08,-8.88178e-17
-9.671e-08,-8.88178e-17
-9.591e-08,-8.88178e-17
-9.511e-08,-8.88178e-17
-9.431e-08,-8.88178e-17
-9.351e-08,-8.88178e-17
-9.271e-08,-8.88178e-17
-9.191e-08,0.008
-9.111e-08,-8.88178e-17
-9.031e-08,-0.008
-8.951e-08,-8.88178e-17
-8.871e-08,-0.008
-8.791e-08,-8.88178e-17
-8.711e-08,-8.88178e-17
-8.631e-08,-8.88178e-17
-8.551e-08,-0.008
-8.471e-08,-8.88178e-17
-8.391e-08,-8.88178e-17
-8.311e-08,-0.008
-8.231e-08,-8.88178e-17
-8.151e-08,-0.008
-8.071e-08,-8.88178e-17
-7.991e-08,-8.88178e-17
-7.911e-08,0.008
-7.831e-08,-8.88178e-17
-7.751e-08,-8.88178e-17
-7.671e-08,-8.88178e-17
-7.591e-08,-8.88178e-17
-7.511e-08,-8.88178e-17
-7.431e-08,-8.88178e-17
-7.351e-08,-8.88178e-17
-7.271e-08,-8.88178e-17
-7.191e-08,-8.88178e-17
-7.111e-08,-8.88178e-17
-7.031e-08,-0.008
-6.951e-08,-0.008
-6.871e-08,-0.008
-6.791e-08,-0.008
-6.711e-08,-8.88178e-17
-6.631e-08,-8.88178e-17
-6.551e-08,-8.88178e-17
-6.471e-08,-0.008
-6.391e-08,-8.88178e-17
-6.311e-08,-8.88178e-17
-6.231e-08,-8.88178e-17
-6.151e-08,-8.88178e-17
-6.071e-08,-0.008
-5.991e-08,-8.88178e-17
-5.911e-08,-8.88178e-17
-5.831e-08,-8.88178e-17
-5.751e-08,-8.88178e-17
-5.671e-08,0.008
-5.591e-08,-8.88178e-17
-5.511e-08,-8.88178e-17
-5.431e-08,-8.88178e-17
-5.351e-08,-0.008
-5.271e-08,-8.88178e-17
-5.191e-08,-8.88178e-17
-5.111e-08,-8.88178e-17
-5.031e-08,-8.88178e-17
-4.951e-08,-8.88178e-17
-4.871e-08,-0.008
-4.791e-08,-8.88178e-17
-4.711e-08,-8.88178e-17
-4.631e-08,-0.008
-4.551e-08,-0.008
-4.471e-08,-8.88178e-17
-4.391e-08,-8.88178e-17
-4.311e-08,-8.88178e-17
-4.231e-08,-8.88178e-17
-4.151e-08,-0.008
-4.071e-08,-8.88178e-17
-3.991e-08,-8.88178e-17
-3.911e-08,-8.88178e-17
-3.831e-08,-0.008
-3.751e-08,-0.008
-3.671e-08,-0.008
-3.591e-08,-8.88178e-17
-3.511e-08,-8.88178e-17
-3.431e-08,-8.88178e-17
-3.351e-08,-8.88178e-17
-3.271e-08,-8.88178e-17
-3.191e-08,-8.88178e-17
-3.111e-08,-8.88178e-17
-3.031e-08,-8.88178e-17
-2.951e-08,-8.88178e-17
-2.871e-08,-8.88178e-17
-2.791e-08,-8.88178e-17
-2.711e-08,-8.88178e-17
-2.631e-08,-8.88178e-17
-2.551e-08,-8.88178e-17
-2.471e-08,-8.88178e-17
-2.391e-08,-8.88178e-17
-2.311e-08,-0.008
-2.231e-08,-0.008
-2.151e-08,-8.88178e-17
-2.071e-08,-8.88178e-17
-1.991e-08,-8.88178e-17
-1.911e-08,-8.88178e-17
-1.831e-08,-8.88178e-17
-1.751e-08,-8.88178e-17
-1.671e-08,-8.88178e-17
-1.591e-08,-8.88178e-17
-1.511e-08,-8.88178e-17
-1.431e-08,-8.88178e-17
-1.351e-08,-0.008
-1.271e-08,-8.88178e-17
-1.191e-08,-8.88178e-17
-1.111e-08,-8.88178e-17
-1.031e-08,-8.88178e-17
-9.508e-09,-8.88178e-17
-8.708e-09,-8.88178e-17
-7.908e-09,-8.88178e-17
-7.108e-09,-0.008
-6.308e-09,-8.88178e-17
-5.508e-09,-8.88178e-17
-4.708e-09,-8.88178e-17
-3.908e-09,-0.016
-3.108e-09,-0.04
-2.308e-09,-0.088
-1.508e-09,-0.224
-7.083e-10,-0.392
9.172e-11,-0.552
8.917e-10,-0.64
1.692e-09,-0.648
2.492e-09,-0.616
3.292e-09,-0.576
4.092e-09,-0.544
4.892e-09,-0.52
5.692e-09,-0.512
6.492e-09,-0.536
7.292e-09,-0.56
8.092e-09,-0.6
8.892e-09,-0.624
9.692e-09,-0.608
1.049e-08,-0.56
1.129e-08,-0.504
1.209e-08,-0.488
1.289e-08,-0.496
1.369e-08,-0.56
1.449e-08,-0.608
1.529e-08,-0.656
1.609e-08,-0.688
1.689e-08,-0.696
1.769e-08,-0.672
1.849e-08,-0.648
1.929e-08,-0.616
2.009e-08,-0.576
2.089e-08,-0.544
2.169e-08,-0.528
2.249e-08,-0.536
2.329e-08,-0.544
2.409e-08,-0.544
2.489e-08,-0.544
2.569e-08,-0.552
2.649e-08,-0.536
2.729e-08,-0.512
2.809e-08,-0.504
2.889e-08,-0.496
2.969e-08,-0.504
3.049e-08,-0.52
3.129e-08,-0.544
3.209e-08,-0.536
3.289e-08,-0.536
3.369e-08,-0.512
3.449e-08,-0.48
3.529e-08,-0.472
3.609e-08,-0.488
3.689e-08,-0.528
3.769e-08,-0.568
3.849e-08,-0.6
3.929e-08,-0.616
4.009e-08,-0.6
4.089e-08,-0.552
4.169e-08,-0.496
4.249e-08,-0.448
4.329e-08,-0.424
4.409e-08,-0.424
4.489e-08,-0.44
4.569e-08,-0.472
4.649e-08,-0.496
4.729e-08,-0.504
4.809e-08,-0.504
4.889e-08,-0.504
4.969e-08,-0.504
5.049e-08,-0.496
5.129e-08,-0.488
5.209e-08,-0.472
5.289e-08,-0.456
5.369e-08,-0.464
5.449e-08,-0.496
5.529e-08,-0.536
5.609e-08,-0.56
5.689e-08,-0.56
5.769e-08,-0.544
5.849e-08,-0.52
5.929e-08,-0.504
6.009e-08,-0.504
6.089e-08,-0.528
6.169e-08,-0.544
6.249e-08,-0.56
6.329e-08,-0.568
6.409e-08,-0.592
6.489e-08,-0.6
6.569e-08,-0.576
6.649e-08,-0.536
6.729e-08,-0.488
6.809e-08,-0.456
6.889e-08,-0.464
6.969e-08,-0.496
7.049e-08,-0.528
7.129e-08,-0.544
7.209e-08,-0.552
7.289e-08,-0.544
7.369e-08,-0.52
7.449e-08,-0.488
7.529e-08,-0.472
7.609e-08,-0.456
7.689e-08,-0.448
7.769e-08,-0.456
7.849e-08,-0.488
7.929e-08,-0.528
8.009e-08,-0.552
8.089e-08,-0.568
8.169e-08,-0.56
8.249e-08,-0.536
8.329e-08,-0.504
8.409e-08,-0.48
8.489e-08,-0.48
8.569e-08,-0.512
8.649e-08,-0.552
8.729e-08,-0.568
8.809e-08,-0.568
8.889e-08,-0.552
8.969e-08,-0.512
9.049e-08,-0.496
9.129e-08,-0.488
9.209e-08,-0.496
9.289e-08,-0.496
9.369e-08,-0.472
9.449e-08,-0.448
9.529e-08,-0.44
9.609e-08,-0.448
9.689e-08,-0.456
9.769e-08,-0.432
9.849e-08,-0.4
9.929e-08,-0.376
1.001e-07,-0.384
1.009e-07,-0.408
1.017e-07,-0.432
1.025e-07,-0.448
1.033e-07,-0.44
1.041e-07,-0.456
1.049e-07,-0.472
1.057e-07,-0.488
1.065e-07,-0.504
1.073e-07,-0.488
1.081e-07,-0.48
1.089e-07,-0.472
1.097e-07,-0.472
1.105e-07,-0.488
1.113e-07,-0.488
1.121e-07,-0.48
1.129e-07,-0.448
1.137e-07,-0.432
1.145e-07,-0.416
1.153e-07,-0.4
1.161e-07,-0.416
1.169e-07,-0.432
1.177e-07,-0.456
1.185e-07,-0.464
1.193e-07,-0.44
1.201e-07,-0.424
1.209e-07,-0.392
1.217e-07,-0.392
1.225e-07,-0.424
1.233e-07,-0.44
1.241e-07,-0.448
1.249e-07,-0.432
1.257e-07,-0.416
1.265e-07,-0.408
1.273e-07,-0.4
1.281e-07,-0.408
1.289e-07,-0.416
1.297e-07,-0.432
1.305e-07,-0.432
1.313e-07,-0.464
1.321e-07,-0.472
1.329e-07,-0.472
1.337e-07,-0.448
1.345e-07,-0.432
1.353e-07,-0.432
1.361e-07,-0.44
1.369e-07,-0.464
1.377e-07,-0.488
1.385e-07,-0.488
1.393e-07,-0.472
1.401e-07,-0.448
1.409e-07,-0.448
1.417e-07,-0.448
1.425e-07,-0.448
1.433e-07,-0.432
1.441e-07,-0.416
1.449e-07,-0.424
1.457e-07,-0.448
1.465e-07,-0.456
1.473e-07,-0.448
1.481e-07,-0.432
1.489e-07,-0.416
1.497e-07,-0.408
1.505e-07,-0.384
1.513e-07,-0.376
1.521e-07,-0.352
1.529e-07,-0.36
1.537e-07,-0.36
1.545e-07,-0.36
1.553e-07,-0.368
1.561e-07,-0.368
1.569e-07,-0.368
1.577e-07,-0.36
1.585e-07,-0.368
1.593e-07,-0.368
1.601e-07,-0.376
1.609e-07,-0.392
1.617e-07,-0.408
1.625e-07,-0.408
1.633e-07,-0.408
1.641e-07,-0.384
1.649e-07,-0.368
1.657e-07,-0.352
1.665e-07,-0.328
1.673e-07,-0.32
1.681e-07,-0.32
1.689e-07,-0.32
1.697e-07,-0.32
1.705e-07,-0.312
1.713e-07,-0.312
1.721e-07,-0.32
1.729e-07,-0.304
1.737e-07,-0.28
1.745e-07,-0.248
1.753e-07,-0.248
1.761e-07,-0.256
1.769e-07,-0.272
1.777e-07,-0.256
1.785e-07,-0.248
1.793e-07,-0.256
1.801e-07,-0.28
1.809e-07,-0.304
1.817e-07,-0.304
1.825e-07,-0.28
1.833e-07,-0.272
1.841e-07,-0.28
1.849e-07,-0.296
1.857e-07,-0.288
1.865e-07,-0.28
1.873e-07,-0.264
1.881e-07,-0.256
1.889e-07,-0.264
1.897e-07,-0.272
1.905e-07,-0.264
1.913e-07,-0.248
1.921e-07,-0.232
1.929e-07,-0.24
1.937e-07,-0.256
1.945e-07,-0.28
1.953e-07,-0.288
1.961e-07,-0.296
1.969e-07,-0.296
1.977e-07,-0.312
1.985e-07,-0.32
1.993e-07,-0.312
2.001e-07,-0.304
2.009e-07,-0.304
2.017e-07,-0.32
2.025e-07,-0.344
2.033e-07,-0.36
2.041e-07,-0.36
2.049e-07,-0.328
2.057e-07,-0.304
2.065e-07,-0.28
2.073e-07,-0.28
2.081e-07,-0.272
2.089e-07,-0.288
2.097e-07,-0.288
2.105e-07,-0.288
2.113e-07,-0.28
2.121e-07,-0.272
2.129e-07,-0.256
2.137e-07,-0.264
2.145e-07,-0.28
2.153e-07,-0.312
2.161e-07,-0.32
2.169e-07,-0.32
2.177e-07,-0.296
2.185e-07,-0.264
2.193e-07,-0.232
2.201e-07,-0.224
2.209e-07,-0.216
2.217e-07,-0.216
2.225e-07,-0.24
2.233e-07,-0.248
2.241e-07,-0.264
2.249e-07,-0.272
2.257e-07,-0.272
2.265e-07,-0.272
2.273e-07,-0.272
2.281e-07,-0.28
2.289e-07,-0.296
2.297e-07,-0.312
2.305e-07,-0.312
2.313e-07,-0.312
2.321e-07,-0.28
2.329e-07,-0.272
2.337e-07,-0.272
2.345e-07,-0.264
2.353e-07,-0.256
2.361e-07,-0.248
2.369e-07,-0.248
2.377e-07,-0.264
2.385e-07,-0.296
2.393e-07,-0.304
2.401e-07,-0.312
2.409e-07,-0.304
2.417e-07,-0.296
2.425e-07,-0.288
2.433e-07,-0.28
2.441e-07,-0.28
2.449e-07,-0.264
2.457e-07,-0.248
2.465e-07,-0.248
2.473e-07,-0.248
2.481e-07,-0.248
2.489e-07,-0.232
2.497e-07,-0.216
2.505e-07,-0.216
2.513e-07,-0.216
2.521e-07,-0.232
2.529e-07,-0.24
2.537e-07,-0.224
2.545e-07,-0.224
2.553e-07,-0.224
2.561e-07,-0.232
2.569e-07,-0.224
2.577e-07,-0.216
2.585e-07,-0.224
2.593e-07,-0.248
2.601e-07,-0.272
2.609e-07,-0.272
2.617e-07,-0.256
2.625e-07,-0.232
2.633e-07,-0.224
2.641e-07,-0.224
2.649e-07,-0.248
2.657e-07,-0.256
2.665e-07,-0.28
2.673e-07,-0.28
2.681e-07,-0.272
2.689e-07,-0.256
2.697e-07,-0.224
2.705e-07,-0.192
2.713e-07,-0.168
2.721e-07,-0.176
2.729e-07,-0.216
2.737e-07,-0.264
2.745e-07,-0.296
2.753e-07,-0.296
2.761e-07,-0.28
2.769e-07,-0.24
2.777e-07,-0.2
2.785e-07,-0.176
2.793e-07,-0.176
2.801e-07,-0.176
2.809e-07,-0.2
2.817e-07,-0.232
2.825e-07,-0.24
2.833e-07,-0.24
2.841e-07,-0.216
2.849e-07,-0.184
2.857e-07,-0.168
2.865e-07,-0.168
2.873e-07,-0.184
2.881e-07,-0.216
2.889e-07,-0.216
2.897e-07,-0.216
2.905e-07,-0.208
2.913e-07,-0.2
2.921e-07,-0.176
2.929e-07,-0.16
2.937e-07,-0.144
2.945e-07,-0.136
2.953e-07,-0.152
2.961e-07,-0.192
2.969e-07,-0.232
2.977e-07,-0.248
2.985e-07,-0.264
2.993e-07,-0.248
3.001e-07,-0.224
3.009e-07,-0.2
3.017e-07,-0.184
3.025e-07,-0.184
3.033e-07,-0.184
3.041e-07,-0.184
3.049e-07,-0.176
3.057e-07,-0.176
3.065e-07,-0.168
3.073e-07,-0.152
3.081e-07,-0.128
3.089e-07,-0.12
3.097e-07,-0.112
3.105e-07,-0.152
3.113e-07,-0.192
3.121e-07,-0.232
3.129e-07,-0.256
3.137e-07,-0.24
3.145e-07,-0.224
3.153e-07,-0.208
3.161e-07,-0.2
3.169e-07,-0.192
3.177e-07,-0.184
3.185e-07,-0.168
3.193e-07,-0.176
3.201e-07,-0.184
3.209e-07,-0.192
3.217e-07,-0.2
3.225e-07,-0.192
3.233e-07,-0.184
3.241e-07,-0.184
3.249e-07,-0.208
3.257e-07,-0.216
3.265e-07,-0.208
3.273e-07,-0.2
3.281e-07,-0.184
3.289e-07,-0.184
3.297e-07,-0.192
3.305e-07,-0.192
3.313e-07,-0.2
3.321e-07,-0.208
3.329e-07,-0.208
3.337e-07,-0.2
3.345e-07,-0.2
3.353e-07,-0.184
3.361e-07,-0.168
3.369e-07,-0.16
3.377e-07,-0.144
3.385e-07,-0.152
3.393e-07,-0.168
3.401e-07,-0.168
3.409e-07,-0.152
3.417e-07,-0.136
3.425e-07,-0.12
3.433e-07,-0.104
3.441e-07,-0.104
3.449e-07,-0.112
3.457e-07,-0.112
3.465e-07,-0.12
3.473e-07,-0.12
3.481e-07,-0.136
3.489e-07,-0.144
3.497e-07,-0.128
3.505e-07,-0.128
3.513e-07,-0.128
3.521e-07,-0.12
3.529e-07,-0.112
3.537e-07,-0.12
3.545e-07,-0.112
3.553e-07,-0.12
3.561e-07,-0.12
3.569e-07,-0.12
3.577e-07,-0.112
3.585e-07,-0.096
3.593e-07,-0.104
3.601e-07,-0.12
3.609e-07,-0.136
3.617e-07,-0.144
3.625e-07,-0.144
3.633e-07,-0.144
3.641e-07,-0.136
3.649e-07,-0.136
3.657e-07,-0.136
3.665e-07,-0.136
3.673e-07,-0.136
3.681e-07,-0.144
3.689e-07,-0.16
3.697e-07,-0.176
3.705e-07,-0.168
3.713e-07,-0.152
3.721e-07,-0.128
3.729e-07,-0.12
3.737e-07,-0.12
3.745e-07,-0.12
3.753e-07,-0.128
3.761e-07,-0.136
3.769e-07,-0.144
3.777e-07,-0.136
3.785e-07,-0.128
3.793e-07,-0.12
3.801e-07,-0.12
3.809e-07,-0.112
3.817e-07,-0.128
3.825e-07,-0.144
3.833e-07,-0.144
3.841e-07,-0.128
3.849e-07,-0.12
3.857e-07,-0.104
3.865e-07,-0.112
3.873e-07,-0.104
3.881e-07,-0.096
3.889e-07,-0.088
3.897e-07,-0.088
3.905e-07,-0.096
3.913e-07,-0.104
3.921e-07,-0.096
3.929e-07,-0.096
3.937e-07,-0.096
3.945e-07,-0.104
3.953e-07,-0.12
3.961e-07,-0.128
3.969e-07,-0.128
3.977e-07,-0.12
3.985e-07,-0.112
3.993e-07,-0.112
4.001e-07,-0.128
4.009e-07,-0.128
4.017e-07,-0.12
4.025e-07,-0.104
4.033e-07,-0.088
4.041e-07,-0.088
4.049e-07,-0.112
4.057e-07,-0.136
4.065e-07,-0.136
4.073e-07,-0.128
4.081e-07,-0.112
4.089e-07,-0.112
4.097e-07,-0.112
4.105e-07,-0.104
4.113e-07,-0.096
4.121e-07,-0.08
4.129e-07,-0.08
4.137e-07,-0.08
4.145e-07,-0.088
4.153e-07,-0.088
4.161e-07,-0.08
4.169e-07,-0.072
4.177e-07,-0.072
4.185e-07,-0.072
4.193e-07,-0.08
4.201e-07,-0.096
4.209e-07,-0.096
4.217e-07,-0.096
4.225e-07,-0.08
4.233e-07,-0.08
4.241e-07,-0.096
4.249e-07,-0.096
4.257e-07,-0.104
4.265e-07,-0.088
4.273e-07,-0.064
4.281e-07,-0.064
4.289e-07,-0.072
4.297e-07,-0.088
4.305e-07,-0.096
4.313e-07,-0.104
4.321e-07,-0.112
4.329e-07,-0.112
4.337e-07,-0.112
4.345e-07,-0.104
4.353e-07,-0.096
4.361e-07,-0.072
4.369e-07,-0.056
4.377e-07,-0.056
4.385e-07,-0.072
4.393e-07,-0.08
4.401e-07,-0.088
4.409e-07,-0.088
4.417e-07,-0.088
4.425e-07,-0.096
4.433e-07,-0.096
4.441e-07,-0.088
4.449e-07,-0.08
4.457e-07,-0.088
4.465e-07,-0.096
4.473e-07,-0.104
4.481e-07,-0.112
4.489e-07,-0.12
4.497e-07,-0.104
4.505e-07,-0.08
4.513e-07,-0.072
4.521e-07,-0.064
4.529e-07,-0.072
4.537e-07,-0.08
4.545e-07,-0.096
4.553e-07,-0.104
4.561e-07,-0.112
4.569e-07,-0.112
4.577e-07,-0.104
4.585e-07,-0.08
4.593e-07,-0.072
4.601e-07,-0.072
4.609e-07,-0.072
4.617e-07,-0.08
4.625e-07,-0.088
4.633e-07,-0.088
4.641e-07,-0.08
4.649e-07,-0.072
4.657e-07,-0.064
4.665e-07,-0.056
4.673e-07,-0.048
4.681e-07,-0.048
4.689e-07,-0.048
4.697e-07,-0.056
4.705e-07,-0.072
4.713e-07,-0.08
4.721e-07,-0.072
4.729e-07,-0.072
4.737e-07,-0.064
4.745e-07,-0.072
4.753e-07,-0.072
4.761e-07,-0.064
4.769e-07,-0.064
4.777e-07,-0.064
4.785e-07,-0.064
4.793e-07,-0.064
4.801e-07,-0.064
4.809e-07,-0.072
4.817e-07,-0.056
4.825e-07,-0.048
4.833e-07,-0.064
4.841e-07,-0.064
4.849e-07,-0.064
4.857e-07,-0.064
4.865e-07,-0.064
4.873e-07,-0.072
4.881e-07,-0.072
4.889e-07,-0.072
4.897e-07,-0.064
4.905e-07,-0.064
4.913e-07,-0.072
4.921e-07,-0.064
4.929e-07,-0.064
4.937e-07,-0.064
4.945e-07,-0.072
4.953e-07,-0.072
4.961e-07,-0.064
4.969e-07,-0.064
4.977e-07,-0.064
4.985e-07,-0.056
4.993e-07,-0.048
5.001e-07,-0.048
5.009e-07,-0.048
5.017e-07,-0.048
5.025e-07,-0.04
5.033e-07,-0.032
5.041e-07,-0.04
5.049e-07,-0.048
5.057e-07,-0.072
5.065e-07,-0.072
5.073e-07,-0.072
5.081e-07,-0.072
5.089e-07,-0.064
5.097e-07,-0.064
5.105e-07,-0.072
5.113e-07,-0.072
5.121e-07,-0.064
5.129e-07,-0.072
5.137e-07,-0.08
5.145e-07,-0.088
5.153e-07,-0.072
5.161e-07,-0.072
5.169e-07,-0.056
5.177e-07,-0.056
5.185e-07,-0.056
5.193e-07,-0.056
5.201e-07,-0.056
5.209e-07,-0.048
5.217e-07,-0.064
5.225e-07,-0.064
5.233e-07,-0.072
5.241e-07,-0.072
5.249e-07,-0.088
5.257e-07,-0.08
5.265e-07,-0.064
5.273e-07,-0.04
5.281e-07,-0.04
5.289e-07,-0.032
5.297e-07,-0.032
5.305e-07,-0.04
5.313e-07,-0.056
5.321e-07,-0.064
5.329e-07,-0.064
5.337e-07,-0.056
5.345e-07,-0.048
5.353e-07,-0.04
5.361e-07,-0.04
5.369e-07,-0.04
5.377e-07,-0.048
5.385e-07,-0.048
5.393e-07,-0.056
5.401e-07,-0.064
5.409e-07,-0.056
5.417e-07,-0.04
5.425e-07,-0.04
5.433e-07,-0.032
5.441e-07,-0.032
5.449e-07,-0.04
5.457e-07,-0.048
5.465e-07,-0.056
5.473e-07,-0.072
5.481e-07,-0.072
5.489e-07,-0.064
5.497e-07,-0.048
5.505e-07,-0.04
5.513e-07,-0.032
5.521e-07,-0.024
5.529e-07,-0.048
5.537e-07,-0.048
5.545e-07,-0.064
5.553e-07,-0.088
5.561e-07,-0.088
5.569e-07,-0.064
5.577e-07,-0.056
5.585e-07,-0.04
5.593e-07,-0.032
5.601e-07,-0.032
5.609e-07,-0.04
5.617e-07,-0.056
5.625e-07,-0.064
5.633e-07,-0.072
5.641e-07,-0.072
5.649e-07,-0.064
5.657e-07,-0.056
5.665e-07,-0.048
5.673e-07,-0.04
5.681e-07,-0.04
5.689e-07,-0.048
5.697e-07,-0.056
5.705e-07,-0.056
5.713e-07,-0.064
5.721e-07,-0.056
5.729e-07,-0.064
5.737e-07,-0.064
5.745e-07,-0.056
5.753e-07,-0.056
5.761e-07,-0.04
5.769e-07,-0.04
5.777e-07,-0.04
5.785e-07,-0.056
5.793e-07,-0.064
5.801e-07,-0.064
5.809e-07,-0.056
5.817e-07,-0.048
5.825e-07,-0.04
5.833e-07,-0.04
5.841e-07,-0.04
5.849e-07,-0.032
5.857e-07,-0.024
5.865e-07,-0.032
5.873e-07,-0.04
5.881e-07,-0.04
5.889e-07,-0.048
5.897e-07,-0.04
5.905e-07,-0.04
5.913e-07,-0.032
5.921e-07,-0.032
5.929e-07,-0.048
5.937e-07,-0.048
5.945e-07,-0.04
5.953e-07,-0.04
5.961e-07,-0.032
5.969e-07,-0.032
5.977e-07,-0.032
5.985e-07,-0.04
5.993e-07,-0.048
6.001e-07,-0.056
6.009e-07,-0.048
6.017e-07,-0.04
6.025e-07,-0.04
6.033e-07,-0.04
6.041e-07,-0.048
6.049e-07,-0.048
6.057e-07,-0.056
6.065e-07,-0.056
6.073e-07,-0.064
6.081e-07,-0.048
6.089e-07,-0.04
6.097e-07,-0.04
6.105e-07,-0.032
6.113e-07,-0.024
6.121e-07,-0.032
6.129e-07,-0.032
6.137e-07,-0.04
6.145e-07,-0.04
6.153e-07,-0.04
6.161e-07,-0.04
6.169e-07,-0.048
6.177e-07,-0.048
6.185e-07,-0.048
6.193e-07,-0.04
6.201e-07,-0.048
6.209e-07,-0.048
6.217e-07,-0.048
6.225e-07,-0.048
6.233e-07,-0.056
6.241e-07,-0.04
6.249e-07,-0.04
6.257e-07,-0.04
6.265e-07,-0.032
6.273e-07,-0.024
6.281e-07,-0.024
6.289e-07,-0.024
6.297e-07,-0.024
6.305e-07,-0.024
6.313e-07,-0.032
6.321e-07,-0.024
6.329e-07,-0.032
6.337e-07,-0.024
6.345e-07,-0.032
6.353e-07,-0.032
6.361e-07,-0.032
6.369e-07,-0.048
6.377e-07,-0.056
6.385e-07,-0.056
6.393e-07,-0.056
6.401e-07,-0.048
6.409e-07,-0.056
6.417e-07,-0.04
6.425e-07,-0.032
6.433e-07,-0.04
6.441e-07,-0.032
6.449e-07,-0.04
6.457e-07,-0.048
6.465e-07,-0.056
6.473e-07,-0.048
6.481e-07,-0.048
6.489e-07,-0.048
6.497e-07,-0.04
6.505e-07,-0.04
6.513e-07,-0.032
6.521e-07,-0.024
6.529e-07,-0.016
6.537e-07,-0.024
6.545e-07,-0.016
6.553e-07,-0.016
6.561e-07,-0.024
6.569e-07,-0.032
6.577e-07,-0.032
6.585e-07,-0.04
6.593e-07,-0.032
6.601e-07,-0.024
6.609e-07,-0.024
6.617e-07,-0.024
6.625e-07,-0.024
6.633e-07,-0.032
6.641e-07,-0.032
6.649e-07,-0.032
6.657e-07,-0.032
6.665e-07,-0.032
6.673e-07,-0.04
6.681e-07,-0.032
6.689e-07,-0.024
6.697e-07,-0.024
6.705e-07,-0.024

